número 	xIL	xMDEA	XH2O	Temperatura	Pinicial(bar)	Pfinal(bar)	Pinicial(Pa)	Pfinal(Pa)	Pinicial(MPa)	Pfinal(MPa)	Temp1	Temp2	Pressão1(MPa)	pressão2(MPa)	DensidadeTemp1(2MPa)	DesidadeTemp2(2MPa)	DensidadeTemp1(3MPa)	DensidadeTemp2(3MPa)	Densidade_na_T_2MPa	Densidade_na_T_3MPa	DensidadePressãoinical	DensidadePressãofinal	VolumemolarCO2inicial(M³/mol)	VolumemolarCO2final(M³/mol)	Zinicial	Zfinal	nmolsCO2	Densidade(líquido)	MassaLíquido	nmolsLíquido	Volumelíquido
1	0	0.2	0.8	303.15	29.52	21.27	2952000	2127000	2.952	2.127	300	305	2	3	39.42	38.506	63.376	61.556	38.84418	62.2294	61.10690944	41.81410294	0.0007200495	0.0010522766	0.8433084707	0.8879839878	0.0069226218	1.0145	11.0355		1.08777723016264E-005
2	0	0.15	0.85	303.15	29.65	22.24	2965000	2224000	2.965	2.224	300	305	2	3	39.42	38.506	63.376	61.556	38.84418	62.2294	61.4109173	44.08246928	0.000716485	0.0009981292	0.842829139	0.88070264	-0.0004142616	1.0102	10.3882		1.02833102355969E-005
3	0	0.1	0.9	303.15	29.49	22.52	2949000	2252000	2.949	2.252	300	305	2	3	39.42	38.506	63.376	61.556	38.84418	62.2294	61.03675378	44.73725544	0.0007208771	0.0009835203	0.8434197638	0.8787381423	-0.0027531857	1.0059	11.0441		1.09793220001988E-005
4	0	0.05	0.95	303.15	29.42	23	2942000	2300000	2.942	2.3	300	305	2	3	39.42	38.506	63.376	61.556	38.84418	62.2294	60.87305724	45.859746	0.0007228157	0.0009594471	0.8436804453	0.8755009463	-0.0074728514	1.0031	10.3937		1.03615791047752E-005
5	0	0.2	0.8	323.15	29.35	20.93	2935000	2093000	2.935	2.093	320	325	2	3	36.063	35.333	56.89	55.544	35.6031	56.04202	54.7134902	37.50391956	0.0008041892	0.0011732107	0.8784711982	0.9139162743	0.0057236298	1.005	10.6233		1.0570447761194E-005
6	0	0.15	0.85	323.15	29.48	21.61	2948000	2161000	2.948	2.161	320	325	2	3	36.063	35.333	56.89	55.544	35.6031	56.04202	54.97919616	38.89376612	0.0008003027	0.0011312867	0.8780978918	0.9098894085	0.0025355789	1.0022	11.4603		1.14351426860906E-005
7	0	0.1	0.9	323.15	29.52	22.52	2952000	2252000	2.952	2.252	320	325	2	3	36.063	35.333	56.89	55.544	35.6031	56.04202	55.06095184	40.75370784	0.0007991144	0.0010796564	0.8779837532	0.9049302365	-0.004289278	0.9986	10.4219		1.04365111155618E-005
8	0	0.05	0.95	323.15	29.5	23.04	2950000	2304000	2.95	2.304	320	325	2	3	36.063	35.333	56.89	55.544	35.6031	56.04202	55.020074	41.81653168	0.0007997081	0.0010522154	0.8780407801	0.9022944933	-0.0080134939	0.9952	10.259		1.03084807073955E-005
9	0	0	1	303.15	29.58	23.68	2958000	2368000	2.958	2.368	300	305	2	3	39.42	38.506	63.376	61.556	38.84418	62.2294	61.24722076	47.44994096	0.0007183999	0.000927293	0.8430866494	0.8711770991	-0.0119840188	0.9956	10.18		0.000010225
10	0	0	1	323.15	29.55	23.72	2955000	2372000	2.955	2.372	320	325	2	3	36.063	35.333	56.89	55.544	35.6031	56.04202	55.1222686	43.20637824	0.0007982255	0.0010183682	0.8778983714	0.8990434112	-0.0125270056	0.988	10.0174		1.01390688259109E-005
11	0.4	0	0.6	323.15	29.64	23.41	2964000	2341000	2.964	2.341	320	325	2	3	36.063	35.333	56.89	55.544	35.6031	56.04202	55.30621888	42.57277172	0.0007955706	0.0010335244	0.8776433619	0.9004991947	-0.0103361726	1.0509	10.2877		9.78941859358645E-006
12	0.2	0	0.8	323.15	29.71	23.7	2971000	2370000	2.971	2.37	320	325	2	3	36.063	35.333	56.89	55.544	35.6031	56.04202	55.44929132	43.1655004	0.0007935178	0.0010193326	0.8774461909	0.899136043	-0.012325492	1.0159	9.5686		9.41884043705089E-006
13	0.1	0	0.9	323.15	29.63	23.64	2963000	2364000	2.963	2.364	320	325	2	3	36.063	35.333	56.89	55.544	35.6031	56.04202	55.28577996	43.04286688	0.0007958647	0.0010222367	0.8776716124	0.8994149942	-0.0118311733	1.0062	9.9642		9.90280262373286E-006
14	0.05	0	0.95	323.15	29.52	23.6	2952000	2360000	2.952	2.36	320	325	2	3	36.063	35.333	56.89	55.544	35.6031	56.04202	55.06095184	42.9611112	0.0007991144	0.0010241821	0.8779837532	0.8996018463	-0.0118958845	0.9926	10.0288		1.01035663912956E-005
15	0.4	0	0.6	303.15	29.67	23.45	2967000	2345000	2.967	2.345	300	305	2	3	39.42	38.506	63.376	61.556	38.84418	62.2294	61.45768774	46.9120809	0.0007159397	0.0009379247	0.8427558165	0.8726067704	-0.01045318	1.0525	10.0279		9.52769596199525E-006
16	0.2	0	0.8	303.15	29.69	23.63	2969000	2363000	2.969	2.363	300	305	2	3	39.42	38.506	63.376	61.556	38.84418	62.2294	61.50445818	47.33301486	0.0007153953	0.0009295837	0.8426826056	0.8714851333	-0.0113051972	1.0197	10.1274		9.93174463077376E-006
17	0.1	0	0.9	303.15	29.58	23.61	2958000	2361000	2.958	2.361	300	305	2	3	39.42	38.506	63.376	61.556	38.84418	62.2294	61.24722076	47.28624442	0.0007183999	0.0009305032	0.8430866494	0.8716087735	-0.0123177752	1.0123	9.527		9.41124172676084E-006
18	0.05	0	0.95	303.15	29.6	23.65	2960000	2365000	2.96	2.365	300	305	2	3	39.42	38.506	63.376	61.556	38.84418	62.2294	61.2939912	47.3797853	0.0007178518	0.0009286661	0.8430129346	0.8713617372	-0.0123995437	1.0015	9.5355		9.52121817274089E-006
19	0.4	0.2	0.4	303.15	30.38	21.80	3038000	2180000	3.038	2.18	300	305	2	3	39.42	38.506	63.376	61.556	38.84418	62.2294	63.11803836	43.0535196	0.0006971066	0.0010219838	0.8402232703	0.8839104367	0.0066865183	1.0788	10.7276		0.000009944
20	0.4	0.1	0.5	303.15	30.42	22.97	3042000	2297000	3.042	2.297	300	305	2	3	39.42	38.506	63.376	61.556	38.84418	62.2294	63.21157924	45.78959034	0.000696075	0.0009609171	0.8400845505	0.8756986212	-0.0034110957	1.0702	9.3436		8.73070454120725E-006
21	0.2	0.2	0.6	303.15	29.67	21.68	2967000	2168000	2.967	2.168	300	305	2	3	39.42	38.506	63.376	61.556	38.84418	62.2294	61.45768774	42.77289696	0.0007159397	0.0010286888	0.8427558165	0.8848120757	0.0023770352	1.0483	9.0075		8.5924830678241E-006
22	0.2	0.1	0.7	303.15	30.04	22.97	3004000	2297000	3.004	2.297	300	305	2	3	39.42	38.506	63.376	61.556	38.84418	62.2294	62.32294088	45.78959034	0.0007060001	0.0009609171	0.8414192016	0.8756986212	-0.0050569195	1.0374	9.5104		9.1675342201658E-006
23	0.4	0.2	0.4	323.15	30.47	21.79	3047000	2179000	3.047	2.179	320	325	2	3	36.063	35.333	56.89	55.544	35.6031	56.04202	57.00264924	39.26166668	0.0007718939	0.001120686	0.8753691863	0.9088711954	0.0042445418	1.0691	9.9866		9.34112805163221E-006
24	0.4	0.1	0.5	323.15	30.08	22.52	3008000	2252000	3.008	2.252	320	325	2	3	36.063	35.333	56.89	55.544	35.6031	56.04202	56.20553136	40.75370784	0.0007828411	0.0010796564	0.876420677	0.9049302365	-0.0019690987	1.0662	10.684		1.0020634027387E-005
25	0.2	0.2	0.6	324.15	30.37	21.66	3037000	2166000	3.037	2.166	320	325	2	3	36.063	35.333	56.89	55.544	35.4571	55.77282	56.52450164	38.82950952	0.0007784235	0.0011331588	0.8771624368	0.9106857123	0.005337223	1.04	10.6417		1.02324038461538E-005
26	0.2	0.1	0.7	325.15	30.16	22.71	3016000	2271000	3.016	2.271	320	325	2	3	36.063	35.333	56.89	55.544	35.3111	55.50362	55.82670032	40.78327292	0.0007881533	0.0010788737	0.8792727642	0.9062944107	-0.0027376673	1.0319	10.5904		0.000010263

